! Analog Devices Inc.
! 
! Device:      HMC994A_Die
! Description: GaAs pHEMT MMIC.
! Frequency:   DC -  30.00 GHz
! Package:N/A ==> Die
! Conditions:	Vdd = 10.0 V
!		Vgg2=3.5V
!		Adjust Vgg1 between -2 to 0 V to achieve Idd = 250 mA typical.
!		Idd = 250mA
!		Pin = -25 dBm
!		Temp = +25 C 
! 
! Calibration: Calibration plain is at probe tips
! Misc:JM         
!
! Freq(GHz)	S11a(dB)	S11p(deg)	S21a(dB)	S21p(deg)	S12a(dB)	S12p(deg)	S22a(dB)	S22p(deg)
# GHz S  dB   R 50
0.01	-13.787	179.39	13.542	179.011	-43.941	-149.642	-42.34	-143.61
0.109975	-13.577	177.752	14.084	-179.467	-62.665	28.594	-27.271	-136.158
0.20995	-13.989	175.631	14.279	176.997	-64.231	-0.81	-23.488	-141.344
0.309924992	-14.213	174.609	14.336	174.055	-67.61	-81.226	-22.499	-149.518
0.4099	-14.391	174.54	14.497	170.959	-65.978	-61.876	-22.081	-159.347
0.509875008	-14.539	174.965	14.565	168.19	-78.524	170.091	-22.299	-171.447
0.609849984	-14.635	175.888	14.721	165.292	-62.609	-131.079	-23.434	-174.827
0.709825024	-14.598	176.386	14.833	161.67	-57.843	-142.89	-23.815	-175.607
0.8098	-14.544	176.679	14.905	158.16	-60.796	-125.288	-24.346	-172.951
0.909774976	-14.409	176.962	14.994	154.702	-58.074	-137.304	-24.793	-166.274
1.009750016	-14.312	176.625	15.051	150.965	-58.746	-144.534	-24.401	-157.594
1.109725056	-14.228	176.231	15.06	147.072	-57.047	-164.722	-23.132	-153.155
1.209699968	-14.097	176.124	15.025	143.113	-54.896	-124.305	-21.554	-152.888
1.309675008	-13.961	175.411	14.932	139.335	-58.157	-149.926	-20.275	-155.628
1.409650048	-13.918	174.777	14.816	135.865	-55.253	-132.921	-19.264	-161.136
1.50962496	-13.819	174.25	14.683	132.691	-56.586	-142.764	-18.649	-167.456
1.6096	-13.738	173.507	14.568	129.703	-54.764	-174.703	-18.308	-173.692
1.70957504	-13.65	172.545	14.467	126.937	-54.198	-159.751	-18.163	-179.538
1.809549952	-13.56	171.859	14.391	124.315	-57.318	-174.563	-18.097	175.027
1.909524992	-13.527	171.202	14.324	121.688	-57.88	-170.565	-18.142	170.162
2.009500032	-13.418	170.429	14.289	119.005	-52.532	-167.676	-18.357	165.382
2.109474944	-13.362	169.865	14.229	116.325	-53.489	171.967	-18.531	161.188
2.209449984	-13.282	168.492	14.202	113.699	-52.918	-169.638	-18.781	156.691
2.309424896	-13.149	168.15	14.19	111.119	-53.06	178.832	-18.988	153.102
2.409400064	-13.14	167.19	14.164	108.417	-51.595	177.937	-19.421	149.658
2.509374976	-13.012	166.502	14.168	105.725	-52.393	-179.708	-19.807	146.06
2.609349888	-12.911	165.773	14.171	103.057	-52.222	166.352	-20.152	142.809
2.709325056	-12.852	164.409	14.134	100.282	-51.396	174.604	-20.522	139.923
2.809299968	-12.775	163.516	14.123	97.566	-50.79	174.628	-20.956	136.65
2.90927488	-12.653	162.644	14.124	94.812	-50.506	155.418	-21.314	134.537
3.009250048	-12.592	161.478	14.112	92.08	-51.209	154.873	-21.944	132.223
3.10922496	-12.474	160.399	14.137	89.274	-51.078	160.134	-22.507	129.356
3.209200128	-12.445	159.291	14.118	86.452	-49.829	163.37	-23.061	127.516
3.30917504	-12.319	158.189	14.119	83.611	-50.903	138.503	-23.663	125.693
3.409149952	-12.209	156.801	14.106	80.894	-49.624	135.991	-24.455	122.873
3.50912512	-12.17	156.084	14.096	78.183	-50.464	149.749	-25.435	122.477
3.609100032	-12.08	154.766	14.114	75.349	-49.029	138.634	-26.057	119.893
3.709074944	-12.03	153.5	14.114	72.464	-49.314	146.02	-27.25	118.997
3.809050112	-11.964	152.312	14.096	69.549	-47.204	141.568	-28.056	118.948
3.909025024	-11.887	150.905	14.097	66.856	-49.903	139.504	-29.007	120.596
4.008999936	-11.745	149.747	14.104	64.125	-49.265	132.267	-30.269	124.459
4.108975104	-11.728	148.202	14.105	61.17	-48.256	131.217	-32.059	129.477
4.208950016	-11.712	147.178	14.095	58.168	-47.943	117.965	-33.48	134.216
4.308924928	-11.597	145.569	14.088	55.447	-50.812	110.059	-34.656	144.67
4.408900096	-11.589	143.903	14.084	52.56	-47.663	119.239	-35.854	152.017
4.508874752	-11.55	142.338	14.073	49.693	-46.553	118.712	-36.444	173.278
4.60884992	-11.51	141.372	14.079	46.889	-48.499	113.181	-35.615	-168.167
4.708825088	-11.411	139.764	14.082	43.996	-47.782	111.492	-34.468	-159.604
4.808800256	-11.354	138.311	14.07	41.232	-47.884	101.538	-33.478	-149.939
4.908774912	-11.325	136.563	14.059	38.456	-49.567	106.615	-32.201	-146.867
5.00875008	-11.309	134.938	14.046	35.561	-46.941	103.222	-30.512	-144.235
5.108725248	-11.33	133.263	14.035	32.766	-49.432	105.419	-29.459	-144.341
5.208699904	-11.327	131.911	14.052	29.899	-49.964	94.055	-28.296	-139.575
5.308675072	-11.427	130.449	14.051	27.116	-47.281	100.577	-27.147	-139.382
5.40865024	-11.418	129.345	14.046	24.213	-48.054	95.356	-26.567	-138.985
5.508624896	-11.403	127.78	14.049	21.352	-45.568	89.908	-25.873	-140.107
5.608600064	-11.318	126.822	14.074	18.509	-46.61	90.166	-24.984	-141.796
5.708575232	-11.346	124.999	14.063	15.635	-45.875	91.357	-24.28	-144.021
5.808549888	-11.284	123.503	14.058	12.636	-46.769	87.726	-23.633	-144.248
5.908525056	-11.285	122.067	14.042	9.826	-46.837	82.144	-23.125	-143.972
6.008500224	-11.264	120.318	14.024	6.946	-45.289	81.925	-22.87	-146.143
6.10847488	-11.3	118.901	14.022	4.054	-45.673	79.8	-22.423	-149.296
6.208450048	-11.276	117.445	14.014	1.321	-46.184	77.559	-21.891	-151.525
6.308425216	-11.284	115.99	14.002	-1.562	-46.284	65.616	-21.431	-152.26
6.408399872	-11.299	114.157	13.998	-4.388	-45.004	68.661	-21.032	-154.214
6.50837504	-11.325	112.585	13.997	-7.295	-45.189	64.556	-20.823	-155.724
6.608350208	-11.361	110.926	13.99	-10.129	-44.662	66.202	-20.57	-158.335
6.708324864	-11.375	109.532	13.988	-12.957	-45.656	63.267	-20.34	-159.686
6.808300032	-11.432	107.844	13.99	-15.7	-44.945	63.418	-19.858	-161.232
6.9082752	-11.433	106.262	13.99	-18.674	-45.562	62.928	-19.67	-162.392
7.008249856	-11.484	104.662	13.982	-21.482	-44.062	60.786	-19.617	-164.972
7.108225024	-11.538	103.206	13.953	-24.335	-44.285	55.666	-19.353	-167.015
7.208200192	-11.613	101.847	13.963	-27.188	-44.376	48.639	-19.2	-170.458
7.308174848	-11.654	99.827	13.962	-29.95	-45.047	54.167	-18.79	-172.262
7.408150016	-11.726	98.643	13.971	-32.887	-44.037	47.679	-18.556	-172.941
7.508125184	-11.776	96.961	13.962	-35.785	-43.857	39.74	-18.541	-173.485
7.60809984	-11.854	95.463	13.932	-38.584	-44.241	43.387	-18.579	-176.368
7.708075008	-11.914	94.083	13.919	-41.256	-43.678	39.241	-18.362	-179.169
7.808050176	-11.99	92.469	13.931	-44.054	-44.444	35.762	-18.294	179.067
7.908024832	-12.127	90.911	13.934	-46.961	-44.246	37.188	-18.186	177.515
8.008	-12.186	89.586	13.946	-49.872	-43.478	32.938	-18.124	176.526
8.107975168	-12.261	88.151	13.936	-52.746	-42.827	28.389	-18.19	173.668
8.207949824	-12.38	86.712	13.919	-55.489	-42.382	26.008	-18.083	170.93
8.307924992	-12.502	85.222	13.912	-58.202	-42.964	32.2	-17.909	169.71
8.40790016	-12.596	83.846	13.931	-61.041	-42.788	20.662	-17.87	167.614
8.507874816	-12.692	82.441	13.922	-63.971	-42.281	18.536	-17.905	166.116
8.607850496	-12.853	80.658	13.918	-66.921	-41.845	13.188	-18.016	164.326
8.70782464	-12.951	79.92	13.902	-69.673	-42.086	13.689	-17.946	162.327
8.807799808	-13.114	78.843	13.903	-72.351	-41.712	11.846	-17.895	160.651
8.907774976	-13.197	77.119	13.914	-75.164	-41.886	8.077	-17.943	159.167
9.007750144	-13.319	75.788	13.942	-77.955	-41.663	6.993	-18.007	157.648
9.107725312	-13.458	74.846	13.941	-80.909	-41.554	1.967	-18.035	155.727
9.20770048	-13.6	73.83	13.919	-83.897	-41.734	-1.233	-18.08	154.053
9.307674624	-13.674	72.334	13.908	-86.629	-41.706	1.227	-18.155	152.202
9.407649792	-13.883	71.442	13.919	-89.371	-40.771	-1.586	-18.217	150.926
9.50762496	-13.954	70.261	13.943	-92.139	-40.468	-5.271	-18.255	149.765
9.607600128	-14.07	69.626	13.944	-95.042	-41.32	-6.977	-18.382	148.19
9.707575296	-14.232	68.177	13.947	-97.963	-40.897	-14.049	-18.513	147.033
9.807550464	-14.365	67.585	13.928	-100.792	-40.65	-12.441	-18.622	146.292
9.907524608	-14.444	66.538	13.952	-103.559	-40.795	-20.665	-18.798	145.183
10.00749978	-14.649	65.875	13.966	-106.423	-40.436	-23.874	-18.759	144.766
10.10747494	-14.764	65.442	13.994	-109.203	-39.954	-21.182	-19.157	143.966
10.20745011	-14.962	65.126	13.999	-112.283	-40.603	-31.745	-19.242	144.676
10.30742528	-15.039	64.211	13.981	-115.106	-40.662	-26.136	-19.354	143.693
10.40740045	-15.169	63.39	13.968	-117.981	-41.04	-30.906	-19.106	145.997
10.50737459	-15.356	62.609	13.991	-120.784	-40.431	-30.991	-18.633	143.345
10.60734976	-15.508	63.094	14.004	-123.407	-39.97	-33.22	-18.629	139.794
10.70732493	-15.54	62.375	14.026	-126.414	-39.633	-35.271	-18.784	136.871
10.8073001	-15.743	62.155	14.029	-129.373	-39.437	-40.794	-19.063	134.311
10.90727526	-15.95	62.253	14.03	-132.182	-38.765	-43.995	-19.174	132.798
11.00725043	-16.044	62.427	14.04	-134.958	-39.101	-44.622	-19.509	133.437
11.10722458	-16.09	61.76	14.071	-137.775	-38.831	-50.982	-19.726	134.129
11.20719974	-16.211	61.559	14.115	-140.827	-38.354	-53.166	-20.081	134.336
11.30717491	-16.268	61.997	14.108	-143.849	-38.759	-58.301	-20.295	131.499
11.40715008	-16.379	62.144	14.105	-146.758	-38.344	-58.513	-20.405	130.475
11.50712525	-16.403	62.242	14.092	-149.5	-37.978	-61.931	-20.467	130.464
11.60710042	-16.465	61.854	14.14	-152.347	-38.446	-63.719	-20.47	132.763
11.70707456	-16.624	61.487	14.174	-155.342	-37.751	-69.914	-20.673	132.892
11.80704973	-16.537	62.173	14.175	-158.31	-38.375	-73.546	-20.954	131.752
11.9070249	-16.577	61.44	14.175	-161.375	-37.953	-77.259	-21.081	131.558
12.00700006	-16.648	61.046	14.173	-164.192	-37.86	-78.012	-20.845	132.076
12.10697523	-16.674	61.378	14.188	-166.989	-37.801	-81.022	-21.112	133.852
12.2069504	-16.563	61.008	14.225	-169.825	-37.726	-81.426	-21.139	134.388
12.30692454	-16.533	60.73	14.252	-173.015	-37.731	-88.534	-21.305	135.182
12.40689971	-16.581	60.657	14.258	-176.078	-37.486	-89.718	-21.376	134.339
12.50687488	-16.479	60.44	14.257	-179.015	-37.502	-91.889	-21.415	134.338
12.60685005	-16.337	59.695	14.252	178.152	-37.305	-98.904	-21.031	134.642
12.70682522	-16.22	59.583	14.278	175.279	-37.398	-98.165	-21.006	136.284
12.80680038	-16.118	59.113	14.316	172.224	-37.69	-102.967	-21.139	136.895
12.90677453	-16.127	58.644	14.345	169.048	-36.968	-103.693	-21.138	137.157
13.0067497	-15.924	58.158	14.332	166.013	-37.027	-109.32	-21.278	136.559
13.10672486	-15.882	57.779	14.314	163.15	-37.414	-113.312	-20.782	136.576
13.20670003	-15.678	57.422	14.333	160.274	-37.335	-114.891	-20.559	137.67
13.3066752	-15.588	55.863	14.366	157.229	-36.691	-115.519	-20.451	138.842
13.40665037	-15.568	56.081	14.403	154.188	-36.736	-120.565	-20.673	139.188
13.50662451	-15.425	54.767	14.398	150.951	-37.151	-123.615	-20.711	138.225
13.60659968	-15.192	54.077	14.373	148.114	-36.564	-124.677	-20.36	135.621
13.70657485	-15.139	52.71	14.387	145.128	-36.887	-128.933	-20.083	135.462
13.80655002	-15.039	51.601	14.396	142.202	-36.881	-131.106	-19.862	137.156
13.90652518	-15.012	51.273	14.415	139.175	-36.651	-133.938	-20.046	138.368
14.00650035	-14.859	50.059	14.429	136.041	-36.452	-136.875	-19.963	136.592
14.1064745	-14.841	48.401	14.417	132.918	-36.678	-139.654	-19.782	134.821
14.20644966	-14.791	46.882	14.413	129.978	-36.522	-144.058	-19.508	134.232
14.30642483	-14.722	45.707	14.424	127.121	-36.292	-145.102	-19.193	135.16
14.4064	-14.612	44.608	14.442	124.016	-36.417	-148.52	-19.15	135.065
14.50637517	-14.564	43.337	14.458	120.934	-36.37	-152.817	-19.173	134.217
14.60635034	-14.583	41.287	14.443	117.814	-36.377	-153.437	-19.073	131.527
14.7063255	-14.501	39.482	14.438	114.77	-36.416	-156.29	-18.767	130.074
14.80629965	-14.395	37.784	14.437	111.916	-36.209	-159.181	-18.47	130.12
14.90627482	-14.426	36.603	14.451	108.885	-35.898	-163.357	-18.359	130.305
15.00624998	-14.389	34.698	14.462	105.784	-36.157	-164.791	-18.35	128.696
15.10622515	-14.423	32.632	14.458	102.726	-35.994	-168.716	-18.24	124.978
15.20620032	-14.368	30.977	14.447	99.733	-35.67	-171.421	-18.099	121.941
15.30617549	-14.293	28.647	14.456	96.81	-35.729	-174.243	-17.954	121.048
15.40614963	-14.247	27.116	14.462	93.875	-35.602	-178.537	-18.191	119.401
15.5061248	-14.327	25.426	14.484	90.723	-35.734	179.458	-18.514	119.213
15.60609997	-14.329	23.497	14.491	87.671	-35.658	175.761	-18.72	118.169
15.70607514	-14.258	21.68	14.467	84.633	-35.358	174.887	-18.436	117.311
15.8060503	-14.189	18.934	14.455	81.776	-35.794	170.82	-18.102	116.713
15.90602547	-14.227	17.551	14.496	78.812	-35.239	168.122	-17.896	115.01
16.00599962	-14.293	16.617	14.517	75.782	-35.489	167.257	-17.984	114.226
16.10597478	-14.275	14.603	14.527	72.668	-35.245	161.948	-18.143	112.861
16.20594995	-14.372	11.892	14.516	69.48	-35.105	159.183	-18.028	109.999
16.30592512	-14.424	9.572	14.503	66.51	-35.119	156.726	-17.876	108.341
16.40590029	-14.449	8.09	14.512	63.612	-35.341	153.878	-17.551	106.977
16.50587546	-14.441	6.841	14.535	60.697	-34.916	151.676	-17.706	106.168
16.6058496	-14.507	4.463	14.563	57.619	-35.002	147.55	-18.054	104.019
16.70582477	-14.602	2.4	14.562	54.395	-34.841	147.462	-18.067	100.575
16.80579994	-14.747	0.411	14.55	51.235	-34.679	143.626	-17.877	97.652
16.9057751	-14.84	-1.16	14.55	48.42	-34.821	140.019	-17.644	96.197
17.00575027	-14.858	-2.618	14.568	45.443	-34.733	138.71	-17.747	96.159
17.10572544	-15.005	-4.741	14.597	42.441	-34.499	134.284	-18.135	93.828
17.20570061	-15.123	-6.513	14.622	39.347	-34.641	133.99	-18.512	90.759
17.30567578	-15.333	-8.399	14.615	36.143	-34.546	127.917	-18.222	86.687
17.40565094	-15.421	-11.127	14.586	33.128	-34.207	125.856	-18.165	85.166
17.50562406	-15.47	-12.977	14.595	30.194	-34.08	122.537	-18.372	85.375
17.60559923	-15.739	-15.729	14.634	27.289	-34.35	118.734	-18.794	83.996
17.7055744	-15.973	-16.789	14.667	24.212	-34.032	117.269	-19.192	80.818
17.80554957	-16.09	-18.623	14.661	20.972	-34.239	114.794	-19.089	77.432
17.90552474	-16.34	-20.349	14.668	17.783	-33.876	110.253	-19.156	75.381
18.0054999	-16.605	-23.197	14.666	14.805	-33.975	108.777	-19.404	74.508
18.10547507	-16.866	-24.491	14.698	11.923	-33.794	105.769	-19.773	73.621
18.20545024	-17.043	-25.816	14.73	8.884	-33.487	102.221	-20.084	70.592
18.30542541	-17.226	-28.194	14.759	5.588	-33.548	98.585	-20.247	66.614
18.40540058	-17.647	-29.761	14.744	2.438	-33.459	96.259	-20.557	64.224
18.50537574	-17.97	-32.949	14.745	-0.56	-33.379	93.639	-20.693	63.216
18.60535091	-18.346	-34.722	14.768	-3.585	-33.426	91.6	-21.185	62.086
18.70532403	-18.405	-35.686	14.811	-6.698	-33.408	88.768	-21.702	57.795
18.8052992	-18.747	-37.696	14.807	-9.82	-33.228	83.665	-22.004	56.594
18.90527437	-19.332	-40.092	14.83	-12.953	-33.001	81.972	-22.578	54.401
19.00524954	-19.745	-40.774	14.838	-16.176	-33.051	79.584	-23.406	53.068
19.1052247	-19.862	-42.918	14.855	-19.144	-33.012	75.43	-24.192	51.45
19.20519987	-20.145	-45.512	14.894	-22.266	-32.676	72.616	-24.529	46.61
19.30517504	-20.536	-46.707	14.919	-25.487	-32.643	68.25	-24.771	45.059
19.40515021	-21.159	-46.702	14.925	-28.769	-32.635	66.345	-25.588	46.441
19.50512538	-21.483	-46.838	14.934	-31.94	-32.622	62.546	-27.015	46.503
19.60510054	-21.704	-49.96	14.958	-34.904	-32.368	60.016	-28.117	44.933
19.70507571	-21.978	-51.025	15.003	-38.07	-32.56	57.007	-29.336	39.98
19.80505088	-22.487	-51.798	15.033	-41.203	-32.296	53.562	-30.408	35.33
19.905024	-22.805	-51.034	15.063	-44.645	-32.369	51.352	-31.826	41.28
20.00499917	-23.144	-49.412	15.058	-47.918	-32.09	46.25	-33.757	44.252
20.10497434	-23.546	-50.603	15.057	-51.026	-32.111	44.496	-36.748	63.33
20.2049495	-24.112	-51.516	15.084	-54.148	-32.186	41.482	-41.187	86.611
20.30492467	-24.574	-49.039	15.127	-57.32	-32.049	38.823	-50.807	59.448
20.40489984	-24.401	-47.856	15.167	-60.582	-32.142	35.054	-50.475	131.666
20.50487501	-24.733	-42.577	15.176	-64.079	-31.973	33.161	-39.971	139.929
20.60485018	-25.345	-42.846	15.165	-67.346	-31.73	28.476	-34.837	151.919
20.70482534	-25.932	-38.018	15.162	-70.528	-31.841	25.5	-32.372	167.346
20.80480051	-25.222	-36.937	15.186	-73.455	-31.898	21.917	-30.348	-176.022
20.90477568	-25.133	-36.847	15.256	-76.745	-31.703	19.081	-29.957	-174.122
21.00475085	-25.718	-30.951	15.29	-80.313	-31.63	16.609	-29.603	176.612
21.10472602	-25.585	-26.807	15.279	-83.829	-31.48	11.928	-28.116	167.687
21.20469914	-25.365	-23.851	15.238	-87.062	-31.528	10.024	-26.043	168.499
21.3046743	-25.11	-26.732	15.241	-89.992	-31.63	7.605	-24.676	172.07
21.40464947	-25.912	-27.035	15.297	-93.138	-31.509	5.492	-24.24	173.033
21.50462464	-25.637	-18.62	15.357	-96.477	-31.209	1.298	-24.164	171.097
21.60459981	-25.189	-19.269	15.384	-100.138	-31.208	-1.551	-23.631	163.849
21.70457498	-25.426	-16.067	15.349	-103.653	-31.308	-5.936	-22.555	160.457
21.80455014	-25.695	-17.471	15.312	-106.705	-31.196	-7.443	-21.376	160.121
21.90452531	-25.787	-18.114	15.36	-109.745	-31.016	-10.319	-20.905	160.564
22.00450048	-25.525	-15.802	15.442	-113.161	-30.826	-14.933	-20.866	157.692
22.10447565	-25.159	-16.365	15.468	-116.685	-30.85	-17.046	-20.761	154.348
22.20445082	-25.543	-19.93	15.461	-120.374	-30.881	-20.954	-20.11	150.031
22.30442598	-25.949	-21.186	15.405	-123.585	-30.727	-24.315	-19.136	147.495
22.4043991	-26.277	-18.946	15.424	-126.642	-30.71	-27.43	-18.686	147.777
22.50437427	-26.004	-20.06	15.487	-129.871	-30.512	-29.871	-18.557	146.114
22.60434944	-25.906	-27.433	15.53	-133.591	-30.805	-34.184	-18.661	142.274
22.70432461	-26.049	-31.715	15.509	-137.284	-30.525	-36.954	-18.231	138.755
22.80429978	-26.248	-30.518	15.451	-140.582	-30.394	-39.899	-17.571	136.256
22.90427494	-26.022	-29.615	15.467	-143.629	-30.572	-43.4	-17.178	135.519
23.00425011	-26.175	-36.415	15.531	-146.892	-30.446	-47.436	-17.228	133.652
23.10422528	-26.977	-42.85	15.567	-150.526	-30.481	-50.422	-17.283	130.598
23.20420045	-26.439	-44.355	15.547	-154.248	-30.171	-53.244	-16.842	127.022
23.30417562	-25.5	-45.218	15.494	-157.573	-30.288	-55.909	-16.34	124.954
23.40415078	-25.323	-47.605	15.484	-160.662	-30.355	-58.024	-16.088	123.021
23.50412595	-26.191	-45.928	15.551	-163.822	-30.204	-62.541	-16.043	122.101
23.60409907	-26.812	-46.869	15.612	-167.424	-30.117	-66.748	-16.132	119.129
23.70407424	-26.007	-52.662	15.581	-171.472	-29.923	-68.516	-15.852	115.601
23.80404941	-25.658	-55.379	15.503	-174.867	-30.028	-72.516	-15.494	112.701
23.90402458	-25.569	-49.136	15.492	-177.827	-29.956	-76.255	-15.303	111.38
24.00399974	-26.216	-43.557	15.521	179.256	-29.896	-80.052	-15.261	110.824
24.10397491	-26.938	-41.111	15.606	175.734	-29.983	-82.606	-15.431	108.714
24.20395008	-27.629	-49.486	15.66	171.739	-29.898	-85.175	-15.443	104.77
24.30392525	-27.783	-53.187	15.575	167.959	-29.842	-88.608	-15.094	101.316
24.40390042	-27.828	-47.6	15.525	165.017	-29.769	-92.014	-14.769	99.698
24.50387558	-27.489	-35.604	15.525	162.033	-29.763	-94.951	-14.722	99.682
24.60385075	-28.595	-27.589	15.609	158.649	-29.694	-97.653	-14.848	98.617
24.70382592	-30.532	-30.162	15.666	154.975	-29.5	-102.197	-15.042	94.364
24.80379904	-32.301	-34.192	15.64	151.118	-29.637	-106.451	-14.771	89.315
24.90377421	-31.261	-31.344	15.57	147.632	-29.558	-108.082	-14.424	87.038
25.00374938	-29.889	-21.064	15.555	144.624	-29.535	-111.407	-14.312	85.903
25.10372454	-29.397	-5.283	15.604	141.555	-29.526	-114.078	-14.541	85.384
25.20369971	-31.175	3.297	15.69	138.129	-29.434	-116.707	-14.846	83.062
25.30367488	-33.74	18.167	15.708	134.259	-29.279	-120.938	-14.747	76.708
25.40365005	-33.403	12.261	15.663	130.622	-29.162	-124.853	-14.538	71.86
25.50362522	-30.05	8.44	15.647	127.22	-28.934	-127.584	-14.526	71.828
25.60360038	-29.042	14.276	15.67	124.052	-28.863	-132.01	-14.614	72.451
25.70357555	-28.266	28.853	15.721	120.578	-28.894	-135.237	-15.019	69.61
25.80355072	-27.762	34.95	15.761	116.794	-28.765	-139.256	-15.281	63.607
25.90352589	-29.006	18.954	15.753	113.247	-28.883	-142.164	-15.229	58.925
26.00349901	-28.204	13.687	15.738	109.678	-28.616	-146.122	-15.132	58.723
26.10347418	-26.088	13.264	15.737	106.197	-28.48	-150.317	-15.124	60.595
26.20344934	-24.088	16.924	15.767	102.712	-28.359	-153.179	-15.457	58.742
26.30342451	-24.645	16.327	15.795	99.174	-28.522	-157.464	-16.037	52.517
26.40339968	-25.144	13.461	15.813	95.307	-28.414	-161.05	-15.948	49.712
26.50337485	-24.414	4.238	15.8	91.8	-28.479	-165.536	-15.74	48.364
26.60335002	-22.102	-3.808	15.775	88.396	-28.107	-168.459	-15.691	48.239
26.70332518	-21.456	-4.269	15.807	84.78	-28.05	-171.541	-16.202	47.425
26.80330035	-22.026	-1.556	15.84	81.138	-28.196	-174.307	-16.479	44.168
26.90327552	-21.931	-4.301	15.857	77.309	-28.36	-176.962	-16.582	41.758
27.00325069	-21.273	-15.165	15.886	73.504	-28.182	178.452	-16.411	39.504
27.10322586	-20.647	-21.243	15.854	70.037	-28.245	175.409	-16.898	37.55
27.20319898	-20.172	-21.812	15.86	66.715	-28.045	170.711	-17.194	37.334
27.30317414	-20.273	-21.212	15.904	63.159	-27.837	168.615	-17.482	35.576
27.40314931	-21.328	-27.497	15.925	59.196	-28.167	162.969	-17.583	31.059
27.50312448	-21.506	-34.47	15.939	55.372	-27.585	158.621	-18.215	28.878
27.60309965	-20.818	-37.401	15.916	51.561	-27.834	157.208	-18.327	26.866
27.70307482	-20.37	-39.201	15.932	48.089	-27.452	150.379	-18.511	28.395
27.80304998	-21.116	-38.782	15.934	44.394	-27.395	148.321	-18.569	26.294
27.90302515	-22.264	-40.416	15.994	41.094	-27.402	143.83	-19.916	22.004
28.00300032	-22.593	-48.389	15.992	36.926	-27.375	137.989	-20.616	21.58
28.10297549	-22.163	-59.221	15.999	32.797	-27.456	135.127	-20.214	21.028
28.20295066	-21.982	-60.361	15.999	29.201	-27.392	133.212	-20.103	18.184
28.30292582	-22.659	-55.415	15.975	25.476	-27.451	128.118	-21.275	20.116
28.40290099	-23.488	-60.76	15.997	22.07	-27.045	125.799	-22.898	25.905
28.50287411	-24.266	-73.56	16.043	18.126	-27.138	122.476	-22.847	24.15
28.60284928	-24.612	-86.548	16.074	14.217	-26.964	116.365	-22.223	17.969
28.70282445	-24.517	-83.938	16.043	10.069	-26.976	113.736	-22.852	17.796
28.80279962	-24.204	-84.448	15.969	6.319	-27.131	110.71	-23.468	29.284
28.90277478	-25.602	-95.451	15.968	2.635	-26.95	105.896	-24.221	29.576
29.00274995	-26.958	-109.47	16.05	-1.086	-26.784	100.897	-25.674	31.166
29.10272512	-27.069	-112.625	16.073	-5.023	-26.622	98.369	-24.801	17.753
29.20270029	-25.882	-112.133	16.038	-9.085	-26.67	94.515	-24.808	25.039
29.30267546	-28.045	-123.476	16.003	-13.15	-26.355	91.34	-24.072	36.982
29.40265062	-31.432	-128.67	15.97	-16.79	-26.461	86.296	-25.403	41.463
29.50262579	-32.014	-143.829	16.011	-20.505	-26.387	84.231	-27.868	44.834
29.60260096	-30.332	-148.301	16.052	-24.579	-26.504	79.724	-27.651	38.048
29.70257408	-31.811	-169.672	16.02	-28.944	-26.254	75.343	-25.873	35.799
29.80254925	-37.938	169.965	15.981	-32.793	-26.064	72.472	-25.538	42.366
29.90252442	-35.99	122.333	15.956	-36.438	-26.165	68.52	-26.188	54.633
30.00249958	-33.878	111.514	15.97	-40.309	-25.961	62.942	-27.479	63.186
30.10247475	-31.945	104.687	15.988	-44.671	-26.14	58.242	-27.197	57.256
30.20244992	-31.249	86.102	15.983	-48.887	-26.069	55.051	-26.668	55.861
30.30242509	-28.212	67.346	15.933	-52.854	-25.926	50.389	-25.557	62.3
30.40240026	-25.457	59.728	15.886	-56.639	-25.825	44.662	-24.581	72.162
30.50237542	-24.486	57.632	15.917	-60.64	-25.891	40.366	-24.095	69.071
30.60235059	-24.105	53.29	15.891	-64.812	-25.99	38.11	-24.496	66.989
30.70232576	-23.422	43.683	15.885	-69.026	-26.008	33.38	-24.476	71.418
30.80230093	-21.649	36.569	15.822	-73.197	-26.028	30.846	-22.722	68.257
30.90227405	-20.271	31.96	15.774	-76.865	-26.186	27.108	-23.265	69.706
31.00224922	-20.317	30.919	15.77	-81.044	-26.033	22.642	-22.536	66.814
31.10222438	-20.428	29.684	15.765	-85.038	-25.928	18.381	-22.144	60.588
31.20219955	-20.192	21.269	15.748	-89.366	-26.155	15.417	-21.815	65.514
31.30217472	-18.914	12.722	15.706	-93.529	-25.882	10.597	-21.411	64.091
31.40214989	-18.005	10.695	15.654	-97.558	-26.057	6.734	-21.18	58.526
31.50212506	-18.154	9.228	15.616	-101.536	-25.852	3.713	-21.052	57.54
31.60210022	-18.135	4.861	15.591	-105.725	-25.977	-1.213	-20.343	55.444
31.70207539	-18.202	-2.28	15.582	-110.039	-25.966	-5.731	-20.237	55.598
31.80205056	-17.295	-8.602	15.572	-114.194	-25.797	-6.525	-20.505	53.658
31.90202573	-16.73	-11.595	15.499	-118.401	-25.925	-10.709	-19.621	48.419
32.0020009	-16.909	-12.099	15.47	-122.645	-25.884	-15.874	-19.334	42.887
32.10197402	-17.198	-12.376	15.403	-126.577	-25.875	-19.418	-20.107	45.672
32.20194918	-17.184	-21.074	15.377	-130.746	-26.037	-22.831	-19.544	45.088
32.30192435	-16.895	-27.922	15.369	-134.952	-25.845	-27.082	-19.448	38.923
32.40189952	-16.239	-30.053	15.328	-139.59	-25.608	-30.362	-19.057	32.929
32.50187469	-16.271	-29.078	15.257	-143.86	-25.672	-33.762	-18.712	34.241
32.60184986	-16.776	-30.543	15.148	-148.063	-25.68	-41.289	-19.344	35.253
32.70182502	-17.436	-35.739	15.116	-152.251	-25.636	-42.531	-19.43	35.146
32.80180019	-17.165	-40.35	15.1	-156.565	-25.799	-45.792	-19.427	28.618
32.90177536	-16.799	-41.775	15.079	-161.05	-25.918	-49.827	-19.027	25.728
33.00175053	-16.829	-41.685	14.938	-165.509	-25.575	-54.229	-18.853	25.054
33.1017257	-17.53	-41.338	14.795	-169.707	-25.756	-58.895	-19.249	28.316
33.20170086	-18.266	-45.518	14.766	-173.929	-25.764	-63.104	-19.811	26.281
33.30167398	-18.349	-50.417	14.73	-178.158	-25.621	-68.379	-19.811	16.818
33.40164915	-17.593	-52.079	14.638	177.087	-26.056	-71.84	-19.237	14.746
33.50162432	-17.769	-52.359	14.515	172.992	-25.701	-75.876	-19.354	18.791
33.60159949	-18.085	-49.69	14.407	168.922	-25.834	-81.455	-19.819	23.851
33.70157466	-18.693	-51.327	14.327	164.539	-26.292	-84.206	-21.149	10.635
33.80154982	-18.303	-58.168	14.288	159.986	-26.208	-87.262	-21.6	8.371
33.90152499	-18.089	-62.914	14.178	155.496	-25.98	-93.172	-20.198	12.638
34.00150016	-17.68	-61.697	14.046	151.134	-26.094	-95.947	-20.704	17.483
34.10147533	-17.466	-62.406	13.906	146.981	-26.335	-101.031	-22.86	16.254
34.2014505	-17.563	-64.422	13.804	142.813	-26.434	-106.913	-23.833	13.854
34.30142566	-17.497	-70.033	13.734	138.345	-26.71	-108.466	-22.615	6.498
34.40139878	-16.601	-72.959	13.638	133.747	-26.866	-114.262	-22.184	13.138
34.50137395	-16.01	-76.651	13.48	129.287	-26.834	-117.999	-22.673	14.755
34.60134912	-15.975	-76.877	13.284	125.274	-27.013	-121.703	-25.839	27.904
34.70132429	-15.566	-79.966	13.168	120.717	-26.925	-126.361	-25.2	13.029
34.80129946	-15.174	-84.713	13.086	116.545	-26.913	-130.082	-25.147	4.382
34.90127462	-14.69	-89.361	12.949	112.341	-27.523	-135.297	-24.222	8.984
35.00124979	-14.313	-92.591	12.783	108.046	-27.528	-138.489	-24.684	19.473
35.10122496	-14.566	-93.504	12.65	103.659	-27.687	-140.644	-25.317	29.548
35.20120013	-14.053	-97.227	12.496	99.556	-27.774	-146.099	-25.865	26.616
35.3011753	-13.822	-103.813	12.314	95.705	-27.897	-151.318	-26.947	15.405
35.40115046	-13.719	-108.263	12.209	91.63	-28.083	-154.075	-27.196	19.403
35.50112563	-13.843	-110.042	12.08	87.328	-27.948	-158.972	-25.819	27.954
35.6011008	-13.713	-113.431	11.949	83.153	-28.84	-161.919	-24.255	17.306
35.70107597	-13.718	-120.005	11.766	78.834	-28.446	-164.688	-24.677	26.302
35.80105114	-13.93	-127.159	11.56	75.138	-28.819	-169.859	-25.469	26.179
35.9010263	-13.859	-130.23	11.466	71.398	-29.159	-175.209	-25.978	44.873
36.00100147	-13.811	-135.148	11.355	67.742	-28.983	-175.233	-24.666	18.703
36.10097664	-14.023	-141.411	11.259	63.464	-29.636	178.888	-24.857	11.408
36.20095181	-14.703	-149.176	11.049	59.01	-29.441	176.042	-23.312	22.131
36.30092698	-14.205	-155.778	10.879	55.029	-29.754	172.719	-22.577	23.739
36.40089805	-13.759	-161.257	10.71	51.711	-29.988	167.785	-24.757	29.482
36.50087322	-13.765	-167.665	10.64	48.166	-30.434	166.376	-24.769	17.987
36.60084838	-14.591	-172.225	10.601	44.232	-30.29	161.108	-24.626	6.649
36.70082355	-14.316	177.992	10.436	39.831	-30.918	157.045	-22.572	12.399
36.80079872	-13.726	169.375	10.221	35.767	-30.977	151.427	-22.336	21.823
36.90077389	-13.537	164.949	10.059	32.024	-31.277	151.21	-23.619	17.705
37.00074906	-13.548	162.773	10.01	28.843	-30.645	145.554	-26.43	16.047
37.10072422	-13.718	156.574	9.944	24.932	-31.227	140.218	-22.342	6.426
37.20069939	-13.614	145.709	9.826	20.598	-31.876	137.122	-22.772	6.02
37.30067456	-13.237	139.513	9.625	16.578	-31.934	131.418	-22.608	21.148
37.40064973	-12.852	137.385	9.49	12.904	-32.281	131.979	-24.83	18.708
37.5006249	-12.721	135.196	9.451	9.361	-31.974	127.583	-24.5	12.217
37.60060006	-13.119	127.05	9.4	5.68	-32.555	121.11	-22.803	5.744
37.70057523	-13.501	117.883	9.278	1.621	-32.441	123.644	-22.442	10.905
37.8005504	-12.847	112.421	9.072	-2.628	-32.673	118.94	-23.602	33.503
37.90052557	-12.041	108.752	9.011	-6.388	-32.521	110.76	-24.931	22.48
38.00050074	-12.334	104.553	8.969	-9.917	-32.914	107.626	-25.363	3.122
38.1004759	-12.764	99.35	8.927	-13.969	-33.002	105.116	-23.637	22.946
38.20045107	-12.668	89.94	8.835	-17.809	-33.37	105.007	-21.564	22.83
38.30042624	-11.722	82.09	8.664	-22.066	-33.232	102.028	-24.464	40.745
38.40040141	-11.379	79.416	8.578	-25.84	-33.15	95.374	-25.036	35.649
38.50037658	-11.279	77.774	8.512	-29.722	-33.45	91.324	-24.713	24.024
38.60035174	-11.371	71.284	8.511	-33.587	-33.498	89.252	-22.307	18.14
38.70032691	-11.265	62.69	8.466	-37.756	-33.329	82.923	-21.863	33.941
38.80029798	-10.604	58.347	8.309	-41.724	-33.606	77.946	-21.677	44.537
38.90027315	-9.911	56.306	8.229	-45.482	-33.615	76.394	-22.289	52.011
39.00024832	-9.741	54.183	8.213	-49.588	-33.85	76.79	-23.262	35.543
39.10022349	-10.183	49.864	8.16	-53.878	-33.714	73.574	-22.418	33.788
39.20019866	-10.119	43.742	8.133	-58.25	-33.919	67.851	-21.914	36.59
39.30017382	-9.427	39.352	8.081	-62.46	-33.466	62.923	-20.129	39.981
39.40014899	-8.807	35.383	8.005	-66.825	-34.173	56.461	-21.346	42.074
39.50012416	-8.982	35.545	7.927	-70.704	-33.733	55.385	-20.916	36.042
39.60009933	-9.15	33.836	7.872	-74.487	-34.141	51.107	-22.432	38.493
39.7000745	-9.229	27.333	7.863	-79.194	-33.737	43.725	-20.015	36.863
39.80004966	-9.027	19.591	7.794	-83.928	-33.93	44.071	-19.736	34.918
39.90002483	-8.646	17.464	7.731	-88.493	-33.931	33.844	-20.604	34.262
40	-8.595	17.855	7.62	-92.66	-34.163	34.295	-20.263	45.532

